Wavelength [nm]	Wavenumbers [1/cm]	RB_12.5uM	RB_25uM	Rb_50uM	RB_6.25uM
183.000	54644.81	0.1438	-0.09951	0.02943	0.08911
183.500	54495.91	0.1068	0.1277	0.1728	0.04213
184.000	54347.83	0.1366	0.1993	0.2174	0.08686
184.500	54200.54	0.1788	0.1153	0.1793	0.1824
185.000	54054.05	0.07391	-0.01156	0.1099	0.1516
185.500	53908.36	0.009086	-0.004193	0.1426	0.0292
186.000	53763.44	0.2898	0.3276	0.3955	0.08005
186.500	53619.30	0.3367	0.4624	0.5276	0.1501
187.000	53475.94	0.007397	0.1725	0.4236	0.1853
187.500	53333.33	-0.1197	-0.06212	0.1869	0.04122
188.000	53191.49	0.1942	0.03412	0.1476	-0.08842
188.500	53050.40	0.3676	0.3351	0.3353	-0.004287
189.000	52910.05	0.2739	0.52	0.3751	0.1483
189.500	52770.45	0.1961	0.2474	0.09198	0.2194
190.000	52631.58	0.07672	0.02232	-0.03355	0.1003
190.500	52493.44	-0.03128	-0.02968	0.135	-0.1097
191.000	52356.02	0.09319	0.1183	0.3436	-0.1044
191.500	52219.32	0.2283	0.2875	0.3338	0.05973
192.000	52083.33	0.1562	0.3511	0.3543	0.3223
192.500	51948.05	0.09678	0.2655	0.3743	0.4384
193.000	51813.47	0.1475	0.0889	0.3523	0.1618
193.500	51679.59	0.2096	0.03056	0.3338	0.07023
194.000	51546.39	0.1841	0.08289	0.315	0.1666
194.500	51413.88	0.1247	0.1101	0.2495	0.2168
195.000	51282.05	0.09387	0.123	0.1664	0.1693
195.500	51150.90	0.1425	0.1691	0.1049	0.06463
196.000	51020.41	0.2168	0.2209	0.148	0.0593
196.500	50890.59	0.2209	0.1913	0.2174	0.1368
197.000	50761.42	0.1976	0.0721	0.1159	0.1111
197.500	50632.91	0.09907	-0.0494	-0.02829	0.03131
198.000	50505.05	-0.04677	-0.003774	0.01263	0.06799
198.500	50377.83	-0.06398	0.2132	0.1515	0.177
199.000	50251.26	0.01184	0.5059	0.2178	0.2136
199.500	50125.31	0.003019	0.3737	0.1454	0.06423
200.000	50000.00	-0.02566	0.1281	0.06566	-0.05452
200.500	49875.31	0.1419	0.1771	0.1421	0.08299
201.000	49751.24	0.2793	0.2821	0.1823	0.2266
201.500	49627.79	0.05098	0.1886	0.0221	0.05879
202.000	49504.95	-0.1704	0.08684	-0.06318	0.00934
202.500	49382.72	-0.1862	0.09336	-0.02148	0.1707
203.000	49261.08	-0.1185	0.0515	-0.122	0.08831
203.500	49140.05	0.01119	0.0182	-0.2001	-0.03969
204.000	49019.61	0.04612	0.1124	-0.01363	0.1042
204.500	48899.76	0.04457	0.165	0.127	0.1425
205.000	48780.49	0.05044	0.1091	0.08384	-0.01045
205.500	48661.80	-0.03104	-0.02063	0.1323	-0.09454
206.000	48543.69	-0.1346	-0.1353	0.2356	-0.09851
206.500	48426.15	-0.09581	-0.1084	0.007007	-0.1
207.000	48309.18	-0.06302	-0.001612	-0.0504	-0.07811
207.500	48192.77	-0.09993	0.1109	0.1623	-0.02929
208.000	48076.92	0.014	0.2074	0.3289	-0.04399
208.500	47961.63	0.2411	0.2934	0.2276	-0.07886
209.000	47846.89	0.1434	0.5006	0.1237	-0.02542
209.500	47732.70	-0.08949	0.7391	0.119	0.1381
210.000	47619.05	-0.06694	0.3703	0.2936	0.1784
210.500	47505.94	0.03079	0.2187	0.4294	0.2087
211.000	47393.36	0.1161	0.1984	0.4295	0.2913
211.500	47281.32	0.1886	0.254	0.3335	0.2781
212.000	47169.81	0.1784	0.2933	0.2111	0.1718
212.500	47058.82	0.01089	0.1578	0.1088	0.05484
213.000	46948.36	-0.07871	0.07245	0.1405	0.009481
213.500	46838.41	0.05615	0.1889	0.348	0.08296
214.000	46728.97	0.2275	0.2556	0.4078	0.1486
214.500	46620.05	0.2698	0.1768	0.2509	0.1326
215.000	46511.63	0.02889	-0.02404	0.002029	-0.03165
215.500	46403.71	-0.2545	-0.2036	-0.1549	-0.2488
216.000	46296.30	-0.2379	-0.1054	0.0771	-0.2429
216.500	46189.38	-0.04261	0.06431	0.3768	-0.07106
217.000	46082.95	0.1514	0.1434	0.3598	0.112
217.500	45977.01	0.1526	0.1681	0.204	0.1154
218.000	45871.56	-0.03141	0.09334	0.04973	-0.01174
218.500	45766.59	-0.2249	-0.09531	-0.00332	-0.1007
219.000	45662.10	-0.2093	-0.1029	0.1481	-0.09092
219.500	45558.09	0.01896	0.1156	0.4039	0.003439
220.000	45454.55	0.1756	0.2669	0.3741	0.1511
220.500	45351.47	0.1259	0.1938	0.2112	0.2247
221.000	45248.87	-0.1064	-0.08682	0.06598	-0.03722
221.500	45146.73	-0.1903	-0.2227	0.003805	-0.1957
222.000	45045.05	0.1757	0.07335	0.1092	0.1077
222.500	44943.82	0.2716	0.1948	0.08382	0.1544
223.000	44843.05	0.01338	0.05496	0.02648	-0.08128
223.500	44742.73	-0.06865	0.06974	0.3457	-0.1095
224.000	44642.86	-0.04349	0.1192	1.045	0.04808
224.500	44543.43	-0.08676	-0.01587	0.2939	0.2056
225.000	44444.44	-0.1121	-0.0645	0.0631	0.232
225.500	44345.90	-0.04743	0.05834	0.1389	0.136
226.000	44247.79	0.1309	0.2522	0.2671	0.08861
226.500	44150.11	0.2501	0.3106	0.285	0.07982
227.000	44052.86	0.08434	0.1543	0.2042	0.06182
227.500	43956.04	-0.002441	0.04245	0.1956	0.09234
228.000	43859.65	0.1135	0.07122	0.3439	0.1835
228.500	43763.68	0.1436	0.1605	0.4258	0.1396
229.000	43668.12	0.05738	0.2187	0.3589	0.05211
229.500	43572.98	0.08133	0.1735	0.3377	0.1173
230.000	43478.26	0.1142	0.1016	0.3468	0.1899
230.500	43383.95	0.04152	0.07225	0.3076	0.09152
231.000	43290.04	0.07081	0.1564	0.1759	0.1134
231.500	43196.54	0.1966	0.2833	0.109	0.2463
232.000	43103.45	0.1624	0.2958	0.1787	0.1229
232.500	43010.75	0.006799	0.1956	0.4197	-0.09207
233.000	42918.45	-0.01653	0.1159	0.4598	-0.06302
233.500	42826.55	0.154	0.09189	0.4013	0.09552
234.000	42735.04	0.3523	0.1069	0.4429	0.1708
234.500	42643.92	0.1906	0.2117	0.4302	0.1375
235.000	42553.19	-0.0003581	0.3924	0.3795	0.07217
235.500	42462.85	0.1545	0.3136	0.3902	0.08965
236.000	42372.88	0.3669	0.2559	0.3433	0.1247
236.500	42283.30	0.1697	0.393	0.2289	0.1199
237.000	42194.09	0.1097	0.3785	0.2973	0.155
237.500	42105.26	0.2189	0.2359	0.5387	0.1989
238.000	42016.81	0.2244	0.2363	0.6026	0.1457
238.500	41928.72	0.04611	0.3014	0.5082	0.08365
239.000	41841.00	-0.1286	0.2328	0.4834	0.1648
239.500	41753.65	-0.03553	0.1374	0.259	0.251
240.000	41666.67	0.3703	0.1238	0.1072	0.2464
240.500	41580.04	0.4771	0.1965	0.2518	0.3186
241.000	41493.78	0.2126	0.3078	0.5231	0.3203
241.500	41407.87	0.07683	0.3485	0.2154	0.06039
242.000	41322.31	0.06236	0.2973	0.06903	-0.04576
242.500	41237.11	0.1476	0.2803	0.3354	0.1328
243.000	41152.26	0.2389	0.3987	0.5489	0.3071
243.500	41067.76	0.2953	0.6159	0.4605	0.323
244.000	40983.61	0.2773	0.6414	0.3598	0.2363
244.500	40899.80	0.1974	0.4173	0.3013	0.1571
245.000	40816.33	0.1064	0.1875	0.2957	0.126
245.500	40733.20	0.135	0.1808	0.4433	0.1361
246.000	40650.41	0.2676	0.4216	0.7283	0.1717
246.500	40567.95	0.2414	0.5943	0.6546	0.2071
247.000	40485.83	0.1616	0.4997	0.5331	0.1971
247.500	40404.04	0.1921	0.3597	0.7112	0.1324
248.000	40322.58	0.2329	0.2913	0.8867	0.1129
248.500	40241.45	0.2284	0.3194	0.6883	0.1674
249.000	40160.64	0.251	0.4803	0.5425	0.2204
249.500	40080.16	0.236	0.5379	0.517	0.1958
250.000	40000.00	0.1088	0.28	0.5616	0.09772
250.500	39920.16	0.08126	0.1901	0.7596	0.07396
251.000	39840.64	0.2318	0.4031	0.9633	0.1844
251.500	39761.43	0.2981	0.5498	0.8945	0.2565
252.000	39682.54	0.2737	0.5624	0.8044	0.265
252.500	39603.96	0.2555	0.5855	0.8541	0.2456
253.000	39525.69	0.2646	0.6191	0.996	0.249
253.500	39447.73	0.2903	0.6445	1.159	0.2756
254.000	39370.08	0.3077	0.6674	1.204	0.2758
254.500	39292.73	0.3103	0.6772	1.163	0.2603
255.000	39215.69	0.3039	0.6584	1.184	0.2666
255.500	39138.94	0.2999	0.6518	1.263	0.2764
256.000	39062.50	0.3043	0.6835	1.352	0.2706
256.500	38986.35	0.3121	0.7183	1.373	0.2689
257.000	38910.51	0.3186	0.7288	1.334	0.2762
257.500	38834.95	0.3219	0.7164	1.333	0.2786
258.000	38759.69	0.3227	0.7051	1.359	0.278
258.500	38684.72	0.3229	0.7157	1.361	0.2817
259.000	38610.04	0.325	0.7239	1.347	0.2847
259.500	38535.65	0.3289	0.7167	1.34	0.2828
260.000	38461.54	0.3302	0.7176	1.369	0.2794
260.500	38387.72	0.33	0.7249	1.416	0.2768
261.000	38314.18	0.3322	0.7199	1.427	0.2759
261.500	38240.92	0.3348	0.7109	1.406	0.2762
262.000	38167.94	0.335	0.7081	1.384	0.276
262.500	38095.24	0.3336	0.7074	1.381	0.2723
263.000	38022.81	0.3312	0.7034	1.397	0.2667
263.500	37950.66	0.3286	0.6933	1.412	0.2649
264.000	37878.79	0.3263	0.6848	1.406	0.2646
264.500	37807.18	0.3249	0.6851	1.37	0.2618
265.000	37735.85	0.3238	0.686	1.345	0.2593
265.500	37664.78	0.3218	0.6805	1.343	0.2579
266.000	37593.98	0.3171	0.6678	1.336	0.2546
266.500	37523.45	0.3118	0.6535	1.318	0.2501
267.000	37453.18	0.3093	0.6443	1.294	0.2469
267.500	37383.18	0.3069	0.6362	1.27	0.2444
268.000	37313.43	0.3022	0.6252	1.25	0.2414
268.500	37243.95	0.2955	0.6122	1.227	0.2372
269.000	37174.72	0.2887	0.599	1.203	0.2324
269.500	37105.75	0.2839	0.5872	1.179	0.2286
270.000	37037.04	0.2797	0.5752	1.155	0.2253
270.500	36968.58	0.2742	0.5614	1.128	0.2215
271.000	36900.37	0.2684	0.5479	1.098	0.2181
271.500	36832.41	0.2628	0.536	1.069	0.215
272.000	36764.71	0.2569	0.5246	1.047	0.2108
272.500	36697.25	0.2507	0.5123	1.025	0.2063
273.000	36630.04	0.2446	0.4984	0.9965	0.203
273.500	36563.07	0.2389	0.4853	0.9687	0.1999
274.000	36496.35	0.2338	0.4741	0.9465	0.1963
274.500	36429.87	0.2291	0.4623	0.9257	0.1923
275.000	36363.64	0.2246	0.4502	0.9042	0.1888
275.500	36297.64	0.2202	0.4402	0.8828	0.1866
276.000	36231.88	0.2155	0.4313	0.8638	0.1847
276.500	36166.37	0.2107	0.4221	0.8472	0.182
277.000	36101.08	0.2065	0.4127	0.828	0.1787
277.500	36036.04	0.2034	0.404	0.8077	0.1758
278.000	35971.22	0.2008	0.397	0.7929	0.1744
278.500	35906.64	0.1976	0.3896	0.7803	0.1728
279.000	35842.29	0.1931	0.38	0.7646	0.1695
279.500	35778.18	0.1888	0.3722	0.7488	0.1665
280.000	35714.29	0.1858	0.3674	0.7348	0.1652
280.500	35650.62	0.1838	0.3617	0.7208	0.1642
281.000	35587.19	0.1819	0.3551	0.7081	0.1628
281.500	35523.98	0.1793	0.3494	0.6982	0.1605
282.000	35460.99	0.1766	0.3442	0.6878	0.1581
282.500	35398.23	0.1746	0.3391	0.6756	0.1567
283.000	35335.69	0.1731	0.3352	0.6662	0.1564
283.500	35273.37	0.1716	0.3318	0.6593	0.1559
284.000	35211.27	0.1693	0.3277	0.6513	0.1537
284.500	35149.38	0.167	0.3234	0.6423	0.1516
285.000	35087.72	0.1656	0.3195	0.6339	0.1512
285.500	35026.27	0.1637	0.3158	0.6272	0.1501
286.000	34965.03	0.1618	0.3126	0.622	0.1481
286.500	34904.01	0.1615	0.3109	0.6172	0.1471
287.000	34843.21	0.1615	0.3093	0.6123	0.1467
287.500	34782.61	0.16	0.3063	0.6074	0.1459
288.000	34722.22	0.1587	0.3038	0.6032	0.145
288.500	34662.05	0.1587	0.3027	0.6008	0.1446
289.000	34602.08	0.159	0.3024	0.601	0.1447
289.500	34542.31	0.1585	0.3014	0.6002	0.1445
290.000	34482.76	0.1567	0.2992	0.5946	0.1435
290.500	34423.41	0.1557	0.2978	0.5908	0.1425
291.000	34364.26	0.1567	0.2985	0.5923	0.1422
291.500	34305.32	0.1583	0.3001	0.5942	0.1424
292.000	34246.58	0.1592	0.301	0.5945	0.1428
292.500	34188.03	0.1588	0.3002	0.5942	0.143
293.000	34129.69	0.1581	0.2994	0.594	0.1429
293.500	34071.55	0.1583	0.3002	0.5945	0.1424
294.000	34013.61	0.1592	0.302	0.5964	0.1422
294.500	33955.86	0.1604	0.3036	0.599	0.1425
295.000	33898.31	0.1614	0.304	0.6008	0.1427
295.500	33840.95	0.1621	0.3043	0.6023	0.1428
296.000	33783.78	0.1627	0.3058	0.6047	0.1429
296.500	33726.81	0.1635	0.3074	0.6069	0.1427
297.000	33670.03	0.1643	0.3081	0.6089	0.1426
297.500	33613.45	0.1645	0.3082	0.6121	0.1429
298.000	33557.05	0.1649	0.3092	0.6157	0.1434
298.500	33500.84	0.1663	0.3122	0.6184	0.1438
299.000	33444.82	0.1677	0.315	0.621	0.144
299.500	33388.98	0.1685	0.3161	0.6238	0.1443
300.000	33333.33	0.1688	0.3164	0.6262	0.1452
300.500	33277.87	0.169	0.3172	0.6287	0.146
301.000	33222.59	0.1697	0.319	0.6321	0.1455
301.500	33167.50	0.1703	0.3204	0.6341	0.1449
302.000	33112.58	0.1707	0.3206	0.6337	0.145
302.500	33057.85	0.1708	0.3205	0.6341	0.1449
303.000	33003.30	0.171	0.3212	0.636	0.1446
303.500	32948.93	0.1718	0.3227	0.6381	0.1449
304.000	32894.74	0.1726	0.324	0.6394	0.1455
304.500	32840.72	0.1729	0.3241	0.6395	0.1457
305.000	32786.89	0.173	0.324	0.6389	0.1458
305.500	32733.22	0.1732	0.3242	0.6383	0.1459
306.000	32679.74	0.1734	0.3241	0.6383	0.1456
306.500	32626.43	0.1735	0.3238	0.6389	0.1452
307.000	32573.29	0.1735	0.3236	0.6393	0.1451
307.500	32520.33	0.1734	0.3231	0.6373	0.145
308.000	32467.53	0.1731	0.3222	0.6336	0.1447
308.500	32414.91	0.1724	0.3215	0.6328	0.1443
309.000	32362.46	0.1718	0.3208	0.6333	0.144
309.500	32310.18	0.1719	0.3197	0.6309	0.1439
310.000	32258.06	0.1717	0.3184	0.6276	0.1436
310.500	32206.12	0.1706	0.3172	0.6255	0.1431
311.000	32154.34	0.17	0.3163	0.6238	0.1426
311.500	32102.73	0.1697	0.3153	0.6215	0.1423
312.000	32051.28	0.1688	0.3134	0.6181	0.1418
312.500	32000.00	0.1676	0.3113	0.6139	0.141
313.000	31948.88	0.167	0.3095	0.6093	0.14
313.500	31897.93	0.166	0.3072	0.6045	0.1393
314.000	31847.13	0.1646	0.3043	0.5995	0.1388
314.500	31796.50	0.1636	0.3015	0.5943	0.1385
315.000	31746.03	0.1623	0.2988	0.5885	0.1379
315.500	31695.72	0.16	0.2956	0.5819	0.1364
316.000	31645.57	0.1579	0.2921	0.5747	0.135
316.500	31595.58	0.1566	0.2885	0.5673	0.1341
317.000	31545.74	0.1551	0.285	0.5599	0.1336
317.500	31496.06	0.153	0.2813	0.5522	0.1329
318.000	31446.54	0.1505	0.2773	0.5437	0.1311
318.500	31397.17	0.1483	0.2731	0.5359	0.1295
319.000	31347.96	0.1465	0.2689	0.5286	0.1288
319.500	31298.90	0.1442	0.2639	0.5186	0.128
320.000	31250.00	0.1416	0.2587	0.5074	0.1268
320.500	31201.25	0.1395	0.2544	0.4992	0.125
321.000	31152.65	0.1375	0.2501	0.4914	0.1233
321.500	31104.20	0.1351	0.245	0.4816	0.1221
322.000	31055.90	0.1332	0.2403	0.472	0.1213
322.500	31007.75	0.1314	0.2362	0.4633	0.1204
323.000	30959.75	0.1286	0.2318	0.4548	0.1192
323.500	30911.90	0.1257	0.2273	0.4462	0.1177
324.000	30864.20	0.1239	0.2232	0.4373	0.1162
324.500	30816.64	0.1224	0.2195	0.4279	0.1151
325.000	30769.23	0.1205	0.2155	0.4188	0.1142
325.500	30721.97	0.1183	0.2106	0.411	0.1125
326.000	30674.85	0.1157	0.2057	0.4039	0.1108
326.500	30627.87	0.113	0.202	0.3961	0.1101
327.000	30581.04	0.1112	0.1983	0.3883	0.1091
327.500	30534.35	0.1103	0.1942	0.3811	0.1077
328.000	30487.80	0.1088	0.1913	0.3748	0.1071
328.500	30441.40	0.1068	0.1889	0.3685	0.1069
329.000	30395.14	0.1051	0.1852	0.3615	0.1056
329.500	30349.01	0.1035	0.1813	0.3544	0.1046
330.000	30303.03	0.102	0.1784	0.3484	0.1043
330.500	30257.19	0.1011	0.1762	0.3438	0.1033
331.000	30211.48	0.1003	0.174	0.3396	0.1017
331.500	30165.91	0.09853	0.1708	0.3347	0.1012
332.000	30120.48	0.09679	0.168	0.3293	0.1008
332.500	30075.19	0.09589	0.1665	0.3243	0.09956
333.000	30030.03	0.09489	0.1648	0.3205	0.09881
333.500	29985.01	0.09373	0.1626	0.3174	0.09897
334.000	29940.12	0.09325	0.1609	0.3135	0.09939
334.500	29895.37	0.09281	0.1593	0.3094	0.09901
335.000	29850.75	0.09172	0.1574	0.306	0.09743
335.500	29806.26	0.09111	0.1556	0.3031	0.09641
336.000	29761.90	0.0908	0.154	0.3005	0.09632
336.500	29717.68	0.08904	0.1522	0.2973	0.09568
337.000	29673.59	0.08736	0.1506	0.2941	0.09499
337.500	29629.63	0.08771	0.1499	0.2914	0.09521
338.000	29585.80	0.08737	0.1489	0.2889	0.09489
338.500	29542.10	0.0855	0.1471	0.2865	0.09375
339.000	29498.53	0.08528	0.1464	0.2853	0.0938
339.500	29455.08	0.08589	0.146	0.2843	0.09406
340.000	29411.76	0.08473	0.1442	0.2818	0.09248
340.500	29368.58	0.08359	0.1426	0.2792	0.09142
341.000	29325.51	0.08378	0.1421	0.2773	0.09218
341.500	29282.58	0.08354	0.1411	0.2748	0.09211
342.000	29239.77	0.08256	0.1396	0.272	0.09121
342.500	29197.08	0.0818	0.1394	0.2705	0.09136
343.000	29154.52	0.08143	0.1392	0.269	0.09125
343.500	29112.08	0.0813	0.1379	0.2663	0.08997
344.000	29069.77	0.08126	0.1368	0.2648	0.08972
344.500	29027.58	0.08089	0.1362	0.2643	0.09051
345.000	28985.51	0.07973	0.1351	0.2629	0.09018
345.500	28943.56	0.07866	0.1338	0.2607	0.08893
346.000	28901.73	0.07861	0.1329	0.2589	0.08798
346.500	28860.03	0.07904	0.1327	0.2579	0.08833
347.000	28818.44	0.07922	0.1329	0.2572	0.08932
347.500	28776.98	0.07857	0.1322	0.2557	0.08867
348.000	28735.63	0.07761	0.1312	0.2543	0.0873
348.500	28694.40	0.07714	0.1308	0.2538	0.08708
349.000	28653.30	0.07695	0.1302	0.2528	0.08723
349.500	28612.30	0.07678	0.1292	0.251	0.08694
350.000	28571.43	0.07654	0.1287	0.25	0.08621
350.500	28530.67	0.07493	0.1271	0.2471	0.08469
351.000	28490.03	0.07157	0.1226	0.2398	0.0828
351.500	28449.50	0.07081	0.121	0.2371	0.08336
352.000	28409.09	0.07341	0.1235	0.2407	0.08592
352.500	28368.79	0.07538	0.1254	0.2434	0.08595
353.000	28328.61	0.07529	0.125	0.2424	0.08362
353.500	28288.54	0.07355	0.1228	0.2385	0.08246
354.000	28248.59	0.07198	0.1207	0.2346	0.08243
354.500	28208.74	0.07169	0.1198	0.2326	0.08242
355.000	28169.01	0.07144	0.1194	0.2313	0.08231
355.500	28129.40	0.07082	0.1185	0.2298	0.08196
356.000	28089.89	0.0703	0.1169	0.2271	0.08125
356.500	28050.49	0.06964	0.1152	0.2241	0.08074
357.000	28011.20	0.06871	0.1145	0.222	0.08085
357.500	27972.03	0.06846	0.1142	0.2206	0.08097
358.000	27932.96	0.06869	0.1134	0.2189	0.08073
358.500	27894.00	0.06793	0.1113	0.2155	0.0802
359.000	27855.15	0.06664	0.1092	0.2118	0.07951
359.500	27816.41	0.06588	0.1083	0.2098	0.0788
360.000	27777.78	0.06537	0.1074	0.2075	0.07837
360.500	27739.25	0.06474	0.106	0.204	0.07816
361.000	27700.83	0.06385	0.1047	0.2012	0.07773
361.500	27662.52	0.06275	0.1033	0.1988	0.07702
362.000	27624.31	0.0617	0.1012	0.1959	0.07626
362.500	27586.21	0.06136	0.09976	0.1931	0.07577
363.000	27548.21	0.06148	0.0995	0.1907	0.07566
363.500	27510.32	0.06041	0.09817	0.1878	0.0756
364.000	27472.53	0.05876	0.09604	0.1848	0.07529
364.500	27434.84	0.05834	0.09489	0.1823	0.07455
365.000	27397.26	0.05824	0.09407	0.18	0.07376
365.500	27359.78	0.0574	0.0928	0.1772	0.07328
366.000	27322.40	0.05609	0.0914	0.1745	0.07307
366.500	27285.13	0.05509	0.09011	0.1723	0.07294
367.000	27247.96	0.05517	0.08899	0.1705	0.07264
367.500	27210.88	0.05513	0.08806	0.1685	0.07216
368.000	27173.91	0.0541	0.08715	0.1659	0.07164
368.500	27137.04	0.05347	0.08569	0.1635	0.07128
369.000	27100.27	0.05338	0.08389	0.1613	0.07089
369.500	27063.60	0.05257	0.08266	0.1587	0.06998
370.000	27027.03	0.05159	0.08202	0.1563	0.06942
370.500	26990.55	0.0513	0.08149	0.1549	0.06987
371.000	26954.18	0.05099	0.08024	0.1531	0.0697
371.500	26917.90	0.05037	0.07857	0.1506	0.06877
372.000	26881.72	0.04989	0.07795	0.1492	0.06897
372.500	26845.64	0.04963	0.07797	0.1483	0.06953
373.000	26809.65	0.04941	0.07758	0.147	0.06892
373.500	26773.76	0.04904	0.07695	0.1455	0.06819
374.000	26737.97	0.04854	0.07619	0.144	0.06796
374.500	26702.27	0.04814	0.07494	0.1421	0.06749
375.000	26666.67	0.04784	0.07394	0.1405	0.06709
375.500	26631.16	0.04747	0.07403	0.1399	0.06738
376.000	26595.74	0.04703	0.07371	0.1392	0.06739
376.500	26560.42	0.04664	0.07239	0.1377	0.06666
377.000	26525.20	0.04658	0.07183	0.1366	0.06621
377.500	26490.07	0.04635	0.07194	0.1358	0.06612
378.000	26455.03	0.04527	0.0715	0.1347	0.06582
378.500	26420.08	0.04475	0.0709	0.1337	0.06539
379.000	26385.22	0.04552	0.07058	0.1329	0.06509
379.500	26350.46	0.04578	0.0701	0.1325	0.06522
380.000	26315.79	0.04519	0.0693	0.1323	0.06539
380.500	26281.21	0.04473	0.06843	0.1318	0.06486
381.000	26246.72	0.04437	0.06816	0.1307	0.06424
381.500	26212.32	0.04405	0.06866	0.1291	0.06421
382.000	26178.01	0.04431	0.06857	0.1286	0.0644
382.500	26143.79	0.04468	0.06802	0.129	0.06449
383.000	26109.66	0.04388	0.06842	0.1287	0.06439
383.500	26075.62	0.0431	0.0688	0.1278	0.06413
384.000	26041.67	0.04349	0.06791	0.127	0.06376
384.500	26007.80	0.04336	0.06661	0.1265	0.06322
385.000	25974.03	0.04238	0.06579	0.1263	0.06275
385.500	25940.34	0.0421	0.06584	0.1261	0.06288
386.000	25906.74	0.04282	0.06638	0.1261	0.0632
386.500	25873.22	0.04392	0.0668	0.1264	0.06318
387.000	25839.79	0.04402	0.06683	0.1264	0.06311
387.500	25806.45	0.04316	0.06672	0.1259	0.06313
388.000	25773.20	0.04319	0.06716	0.1262	0.06298
388.500	25740.03	0.04372	0.06752	0.1267	0.06287
389.000	25706.94	0.04345	0.06693	0.1264	0.06298
389.500	25673.94	0.0426	0.06674	0.1252	0.06254
390.000	25641.03	0.04196	0.06743	0.124	0.0616
390.500	25608.19	0.04245	0.0673	0.1243	0.0618
391.000	25575.45	0.04319	0.06665	0.1256	0.06247
391.500	25542.78	0.04271	0.06682	0.1265	0.06195
392.000	25510.20	0.04217	0.06744	0.1264	0.06154
392.500	25477.71	0.04242	0.0677	0.1256	0.06191
393.000	25445.29	0.0426	0.06693	0.1256	0.06137
393.500	25412.96	0.04255	0.06602	0.1263	0.06047
394.000	25380.71	0.04267	0.06652	0.1269	0.06104
394.500	25348.54	0.043	0.06765	0.1273	0.062
395.000	25316.46	0.0433	0.06822	0.1275	0.06212
